#Magnitudes for spectra_toy06_artis calculated by wsynphot
#with vega calibration file: https://archive.stsci.edu/hlsps/reference-atlases/cdbs/calspec/alpha_lyr_stis_003.fits 
#and with scipy 1D interpolation kind='cubic'.
#U,B,V,R,I are Generic Bessell filters and J, H, K are 2MASS filters, taken from http://svo2.cab.inta-csic.es/theory/fps/index.php 
#
#NTIMES: 145
#NBANDS: 8
#time[d] U B V R I J H K
4.140000e+00 -16.734218 -16.589676 -16.651781 -17.033601 -17.092793 -17.090019 -17.044621 -16.993902
4.220000e+00 -16.702831 -16.625175 -16.702064 -17.061390 -17.153937 -17.173870 -16.968540 -16.937807
4.310000e+00 -16.797108 -16.688762 -16.696530 -17.084168 -17.176784 -17.166445 -17.024982 -16.927205
4.400000e+00 -16.784609 -16.692377 -16.764890 -17.137070 -17.163601 -17.190695 -17.122388 -16.961826
4.490000e+00 -16.839197 -16.710114 -16.794651 -17.128228 -17.181502 -17.172605 -17.035587 -16.764944
4.580000e+00 -16.834088 -16.750265 -16.815570 -17.151719 -17.233638 -17.216421 -17.098996 -16.949594
4.680000e+00 -16.854286 -16.776037 -16.875122 -17.217681 -17.250906 -17.227026 -17.122259 -17.092732
4.770000e+00 -16.868423 -16.797741 -16.866675 -17.226530 -17.289662 -17.244164 -17.164168 -16.984176
4.870000e+00 -16.885846 -16.806317 -16.905892 -17.278629 -17.298783 -17.334588 -17.199165 -17.068990
4.970000e+00 -16.918560 -16.865791 -16.942746 -17.307035 -17.384954 -17.343072 -17.154513 -17.033820
5.080000e+00 -16.959340 -16.905919 -16.971265 -17.338296 -17.380807 -17.408261 -17.198139 -17.240754
5.180000e+00 -16.974826 -16.922518 -17.022182 -17.367832 -17.352915 -17.419256 -17.279196 -17.147544
5.290000e+00 -17.077401 -16.972330 -17.030899 -17.382950 -17.485106 -17.393722 -17.261182 -17.160549
5.400000e+00 -17.102765 -16.993416 -17.047248 -17.457259 -17.519531 -17.453727 -17.448390 -17.343293
5.510000e+00 -17.163779 -17.034383 -17.116529 -17.494593 -17.565868 -17.481949 -17.354878 -17.225864
5.620000e+00 -17.252961 -17.068965 -17.131637 -17.525243 -17.590364 -17.505433 -17.472975 -17.509236
5.740000e+00 -17.331367 -17.108222 -17.203087 -17.590178 -17.703121 -17.621241 -17.461504 -17.437276
5.860000e+00 -17.366122 -17.174696 -17.221224 -17.595413 -17.733183 -17.679674 -17.545660 -17.552756
5.980000e+00 -17.410273 -17.176906 -17.255983 -17.630288 -17.763618 -17.657523 -17.585589 -17.554571
6.100000e+00 -17.439752 -17.249811 -17.303739 -17.694167 -17.769169 -17.662250 -17.595235 -17.401804
6.230000e+00 -17.524406 -17.296587 -17.362775 -17.724498 -17.771137 -17.718892 -17.580596 -17.427892
6.360000e+00 -17.554943 -17.309275 -17.369321 -17.774614 -17.858803 -17.802921 -17.616765 -17.503320
6.490000e+00 -17.623577 -17.348709 -17.402755 -17.800275 -17.885794 -17.828382 -17.743611 -17.528171
6.620000e+00 -17.618094 -17.416795 -17.460877 -17.854808 -17.919185 -17.882843 -17.748732 -17.482337
6.760000e+00 -17.700723 -17.441762 -17.513141 -17.893601 -17.970058 -17.835571 -17.774732 -17.610888
6.900000e+00 -17.713339 -17.490666 -17.549042 -17.937881 -18.039822 -17.918437 -17.805274 -17.714437
7.040000e+00 -17.753347 -17.526290 -17.579370 -17.978123 -18.116603 -17.924297 -17.820076 -17.853728
7.190000e+00 -17.807495 -17.566201 -17.650726 -18.016826 -18.111790 -17.951788 -17.824675 -17.760518
7.340000e+00 -17.871395 -17.606974 -17.670945 -18.057616 -18.191419 -18.010273 -17.897987 -17.812560
7.490000e+00 -17.887993 -17.661394 -17.716339 -18.116270 -18.220465 -18.062189 -17.899452 -17.831951
7.650000e+00 -17.954507 -17.698158 -17.740861 -18.147114 -18.239402 -18.048673 -17.972679 -17.916004
7.800000e+00 -18.025406 -17.751031 -17.808861 -18.190810 -18.297914 -18.065670 -17.956598 -17.941980
7.960000e+00 -18.073617 -17.781057 -17.844208 -18.252513 -18.301706 -18.110291 -18.046596 -17.953219
8.130000e+00 -18.152549 -17.816731 -17.884818 -18.284039 -18.338788 -18.164215 -18.079557 -18.045388
8.300000e+00 -18.185175 -17.886007 -17.917745 -18.309654 -18.350534 -18.146544 -18.103412 -18.037166
8.470000e+00 -18.177373 -17.899215 -17.972613 -18.361534 -18.400946 -18.135569 -18.144544 -18.007870
8.640000e+00 -18.194999 -17.970282 -18.029493 -18.389956 -18.430798 -18.203325 -18.150756 -18.067912
8.820000e+00 -18.245328 -18.005644 -18.055595 -18.433815 -18.474762 -18.223191 -18.160822 -18.057169
9.010000e+00 -18.294177 -18.050389 -18.084868 -18.455409 -18.514065 -18.281345 -18.140133 -18.131312
9.190000e+00 -18.362885 -18.088822 -18.141108 -18.503608 -18.537178 -18.255648 -18.218991 -18.101007
9.380000e+00 -18.387004 -18.130088 -18.175375 -18.519993 -18.564988 -18.312431 -18.226696 -18.174777
9.580000e+00 -18.401921 -18.168009 -18.227523 -18.574491 -18.612779 -18.348759 -18.192380 -18.170069
9.770000e+00 -18.429015 -18.201551 -18.250225 -18.604574 -18.644468 -18.347599 -18.233450 -18.218398
9.980000e+00 -18.462151 -18.246717 -18.297748 -18.646759 -18.671159 -18.349946 -18.256212 -18.259660
1.018000e+01 -18.466981 -18.286390 -18.356592 -18.679991 -18.710057 -18.392890 -18.244595 -18.290550
1.039000e+01 -18.507953 -18.328843 -18.393233 -18.717445 -18.734189 -18.389945 -18.252079 -18.246527
1.061000e+01 -18.535582 -18.343276 -18.428680 -18.744192 -18.784405 -18.401466 -18.266615 -18.270295
1.083000e+01 -18.563317 -18.407935 -18.458738 -18.779524 -18.809437 -18.415568 -18.295930 -18.354975
1.105000e+01 -18.569410 -18.434943 -18.491866 -18.809722 -18.838556 -18.450807 -18.252704 -18.388868
1.128000e+01 -18.579176 -18.470120 -18.531997 -18.840371 -18.851479 -18.406090 -18.232166 -18.354078
1.151000e+01 -18.590113 -18.510422 -18.590412 -18.874137 -18.874062 -18.465847 -18.242727 -18.375740
1.175000e+01 -18.574002 -18.537769 -18.612103 -18.903301 -18.901474 -18.418057 -18.314907 -18.294451
1.199000e+01 -18.629361 -18.580302 -18.650070 -18.924167 -18.925904 -18.439644 -18.254784 -18.323147
1.224000e+01 -18.656968 -18.608600 -18.685450 -18.959403 -18.970888 -18.446293 -18.280950 -18.292274
1.250000e+01 -18.689836 -18.650760 -18.718565 -18.977120 -18.981590 -18.422696 -18.252326 -18.282721
1.275000e+01 -18.697887 -18.689649 -18.760719 -18.997254 -18.975922 -18.426658 -18.250764 -18.276198
1.302000e+01 -18.725683 -18.716611 -18.791978 -19.023616 -19.009690 -18.398306 -18.196035 -18.221930
1.329000e+01 -18.755092 -18.754613 -18.824326 -19.042787 -19.043038 -18.376315 -18.211554 -18.258381
1.356000e+01 -18.755559 -18.788702 -18.858291 -19.081202 -19.055317 -18.314694 -18.202306 -18.189425
1.384000e+01 -18.769396 -18.825357 -18.898621 -19.094772 -19.067489 -18.365588 -18.155823 -18.252670
1.413000e+01 -18.779371 -18.856648 -18.925432 -19.121011 -19.077633 -18.320630 -18.156363 -18.181570
1.442000e+01 -18.773183 -18.898526 -18.953681 -19.131928 -19.066694 -18.302543 -18.117469 -18.187576
1.472000e+01 -18.765993 -18.920582 -18.977137 -19.156994 -19.092388 -18.270832 -18.073960 -18.137770
1.502000e+01 -18.767191 -18.948229 -19.020552 -19.182984 -19.103229 -18.241467 -18.060627 -18.066438
1.534000e+01 -18.757317 -18.980558 -19.049350 -19.202126 -19.121367 -18.211099 -18.002297 -18.032843
1.565000e+01 -18.782036 -18.996809 -19.076513 -19.211328 -19.138636 -18.189708 -18.011829 -18.046192
1.598000e+01 -18.799600 -19.032059 -19.099763 -19.224959 -19.137439 -18.095774 -17.995311 -17.941962
1.631000e+01 -18.782632 -19.057988 -19.125055 -19.232543 -19.148038 -18.106840 -18.029786 -17.883037
1.664000e+01 -18.782915 -19.079922 -19.150591 -19.255056 -19.150217 -18.039981 -17.951145 -17.953429
1.699000e+01 -18.775783 -19.102962 -19.181234 -19.267974 -19.186176 -18.010669 -17.908046 -17.901981
1.734000e+01 -18.752696 -19.119822 -19.200582 -19.283315 -19.185249 -17.954407 -17.857540 -17.811997
1.770000e+01 -18.746834 -19.142312 -19.229134 -19.290708 -19.209367 -17.897722 -17.849175 -17.820597
1.806000e+01 -18.715578 -19.152580 -19.249837 -19.301912 -19.217053 -17.878110 -17.851653 -17.768041
1.844000e+01 -18.694957 -19.168794 -19.266766 -19.309706 -19.225533 -17.788742 -17.855022 -17.677174
1.882000e+01 -18.716998 -19.180939 -19.283318 -19.320200 -19.256799 -17.780081 -17.784755 -17.747739
1.921000e+01 -18.701488 -19.183180 -19.308992 -19.327930 -19.243960 -17.733690 -17.825235 -17.667590
1.961000e+01 -18.679346 -19.193751 -19.327772 -19.329856 -19.227491 -17.706154 -17.849679 -17.708914
2.001000e+01 -18.619841 -19.189500 -19.341509 -19.328220 -19.230657 -17.652105 -17.879792 -17.608056
2.042000e+01 -18.574123 -19.183455 -19.352485 -19.335454 -19.245536 -17.618546 -17.852716 -17.673001
2.085000e+01 -18.531008 -19.176444 -19.364348 -19.319543 -19.250788 -17.532466 -17.913308 -17.686802
2.128000e+01 -18.493366 -19.164282 -19.381594 -19.322886 -19.258952 -17.513339 -17.953623 -17.744679
2.172000e+01 -18.441255 -19.145544 -19.385917 -19.310056 -19.273478 -17.486379 -18.041034 -17.762666
2.217000e+01 -18.386101 -19.117843 -19.392614 -19.292789 -19.286013 -17.475019 -18.109387 -17.831814
2.263000e+01 -18.300078 -19.092021 -19.396396 -19.296242 -19.298221 -17.440416 -18.178275 -17.863706
2.309000e+01 -18.266172 -19.058577 -19.402607 -19.273627 -19.318941 -17.397103 -18.240434 -17.969153
2.357000e+01 -18.169517 -19.002946 -19.401940 -19.255284 -19.309530 -17.425272 -18.329189 -17.971321
2.406000e+01 -18.111016 -18.958187 -19.395582 -19.245340 -19.314295 -17.378859 -18.423564 -18.115426
2.456000e+01 -18.038227 -18.910088 -19.377312 -19.219040 -19.337804 -17.413113 -18.534987 -18.229068
2.506000e+01 -17.947847 -18.854386 -19.361347 -19.198000 -19.343112 -17.415969 -18.588911 -18.215821
2.558000e+01 -17.857181 -18.791277 -19.334658 -19.175348 -19.328653 -17.373432 -18.676596 -18.376687
2.611000e+01 -17.794589 -18.723180 -19.299148 -19.142635 -19.296896 -17.401616 -18.752381 -18.469979
2.665000e+01 -17.671719 -18.647833 -19.250918 -19.105314 -19.269071 -17.379986 -18.841373 -18.550036
2.720000e+01 -17.546154 -18.573557 -19.202416 -19.078480 -19.287742 -17.381844 -18.947409 -18.667392
2.777000e+01 -17.424446 -18.490154 -19.145086 -19.050253 -19.308606 -17.439173 -19.040674 -18.760711
2.834000e+01 -17.332866 -18.405079 -19.084267 -19.016909 -19.342365 -17.484243 -19.106228 -18.855887
2.893000e+01 -17.246626 -18.313265 -19.016846 -18.988518 -19.360956 -17.553593 -19.169223 -18.921422
2.952000e+01 -17.144777 -18.217645 -18.951444 -18.963133 -19.365595 -17.637567 -19.221592 -18.991525
3.014000e+01 -17.028595 -18.121039 -18.880289 -18.922287 -19.331892 -17.715132 -19.283860 -19.060499
3.076000e+01 -16.923274 -18.021032 -18.818221 -18.893600 -19.321416 -17.855248 -19.311640 -19.101521
3.139000e+01 -16.781342 -17.916799 -18.739000 -18.865550 -19.297280 -17.968668 -19.361594 -19.219707
3.204000e+01 -16.658705 -17.826102 -18.676334 -18.827610 -19.250664 -18.059425 -19.378920 -19.216158
3.271000e+01 -16.524303 -17.722671 -18.596933 -18.791967 -19.242216 -18.171112 -19.378782 -19.257652
3.338000e+01 -16.410412 -17.626182 -18.540824 -18.767182 -19.214880 -18.281011 -19.371856 -19.272462
3.407000e+01 -16.289847 -17.537801 -18.478224 -18.734404 -19.185827 -18.329309 -19.350994 -19.234430
3.478000e+01 -16.139514 -17.447358 -18.426768 -18.708082 -19.175359 -18.371673 -19.358336 -19.247526
3.550000e+01 -16.027451 -17.359462 -18.379483 -18.690682 -19.243829 -18.390793 -19.347203 -19.232390
3.623000e+01 -15.889835 -17.285173 -18.322218 -18.663479 -19.219628 -18.394498 -19.317877 -19.214267
3.698000e+01 -15.775931 -17.216004 -18.281316 -18.627205 -19.199114 -18.407456 -19.310538 -19.187532
3.775000e+01 -15.675154 -17.146008 -18.224491 -18.583224 -19.159688 -18.394839 -19.280360 -19.179187
3.853000e+01 -15.575023 -17.086550 -18.186886 -18.535394 -19.104726 -18.370221 -19.245285 -19.149353
3.932000e+01 -15.427955 -17.018711 -18.133794 -18.494395 -19.043437 -18.342205 -19.211065 -19.110080
4.014000e+01 -15.342132 -16.972059 -18.089842 -18.451703 -19.001570 -18.268178 -19.164895 -19.025615
4.097000e+01 -15.233921 -16.919797 -18.046658 -18.397131 -18.937978 -18.182715 -19.121155 -18.997161
4.181000e+01 -15.119319 -16.860578 -18.003057 -18.341141 -18.901553 -18.130091 -19.063697 -18.906513
4.268000e+01 -15.040311 -16.814294 -17.949894 -18.293088 -18.862793 -18.063715 -19.032414 -18.821961
4.356000e+01 -15.007077 -16.768342 -17.909934 -18.243455 -18.789006 -17.977857 -18.967812 -18.733489
4.446000e+01 -14.984838 -16.726081 -17.864848 -18.186430 -18.727417 -17.873720 -18.904097 -18.700707
4.538000e+01 -14.835317 -16.691913 -17.810843 -18.130174 -18.679555 -17.756896 -18.879385 -18.564619
4.632000e+01 -14.793112 -16.658759 -17.769649 -18.069131 -18.606925 -17.631092 -18.784765 -18.464222
4.728000e+01 -14.676309 -16.629223 -17.730086 -18.002487 -18.549102 -17.535807 -18.709178 -18.388794
4.826000e+01 -14.677315 -16.604897 -17.668102 -17.939886 -18.504353 -17.365630 -18.645063 -18.296814
4.926000e+01 -14.595952 -16.578942 -17.651261 -17.886157 -18.435319 -17.218898 -18.568507 -18.143997
5.027000e+01 -14.556867 -16.579198 -17.613090 -17.819509 -18.368167 -17.102995 -18.495429 -18.089384
5.131000e+01 -14.583215 -16.571370 -17.592696 -17.764701 -18.305679 -16.981482 -18.412272 -18.007391
5.238000e+01 -14.523900 -16.571581 -17.564785 -17.703756 -18.235587 -16.847467 -18.355105 -17.871911
5.346000e+01 -14.498128 -16.585915 -17.544087 -17.642505 -18.175587 -16.735668 -18.247789 -17.721615
5.456000e+01 -14.527626 -16.595794 -17.541139 -17.587416 -18.115184 -16.568377 -18.171244 -17.639068
5.569000e+01 -14.579063 -16.597706 -17.525199 -17.528174 -18.055094 -16.426301 -18.058529 -17.570114
5.684000e+01 -14.632239 -16.598126 -17.518190 -17.469891 -17.991160 -16.295136 -17.964098 -17.464757
5.802000e+01 -14.628548 -16.593240 -17.472540 -17.406505 -17.913234 -16.207273 -17.868881 -17.265266
5.922000e+01 -14.645946 -16.608280 -17.466200 -17.351492 -17.842670 -16.063119 -17.767988 -17.224827
6.045000e+01 -14.752136 -16.619777 -17.461811 -17.281741 -17.796234 -16.002457 -17.657130 -17.063685
6.170000e+01 -14.705937 -16.608855 -17.420741 -17.216042 -17.737728 -15.861662 -17.571949 -16.904847
6.297000e+01 -14.801158 -16.586904 -17.392213 -17.142075 -17.695968 -15.776758 -17.452726 -16.863514
6.427000e+01 -14.807082 -16.593977 -17.362474 -17.079614 -17.625679 -15.699283 -17.332984 -16.624438
6.560000e+01 -14.796605 -16.598785 -17.340659 -17.000257 -17.537697 -15.598872 -17.222160 -16.641411
6.696000e+01 -14.845180 -16.585252 -17.330282 -16.917204 -17.467992 -15.437460 -17.121058 -16.323415
6.835000e+01 -14.828449 -16.583385 -17.302868 -16.851609 -17.386387 -15.329115 -16.951155 -16.359394
6.976000e+01 -14.885148 -16.567561 -17.279698 -16.769253 -17.324849 -15.197759 -16.852950 -16.143914
7.120000e+01 -14.931506 -16.561336 -17.251161 -16.699912 -17.255377 -15.161996 -16.710717 -16.044763
7.267000e+01 -14.905204 -16.533890 -17.212642 -16.609883 -17.175622 -15.076487 -16.582298 -16.012933
7.418000e+01 -14.949796 -16.502037 -17.178392 -16.536476 -17.116487 -15.020791 -16.523476 -15.880507
7.571000e+01 -14.924257 -16.478491 -17.129717 -16.471713 -17.056630 -14.874584 -16.364502 -15.801497
7.728000e+01 -14.937959 -16.452901 -17.088714 -16.373888 -17.010918 -14.747922 -16.261168 -15.690487
7.888000e+01 -14.913218 -16.414781 -17.048050 -16.304217 -16.936021 -14.802930 -16.190565 -15.509506
